2theta chi X Y I
78.214725   1.633105   1027.110000   1293.280000   70931.270
64.331152   -20.838043   1379.170000   1553.580000   51933.840
68.682115   -15.368266   1288.110000   1460.160000   22795.070
105.604857   8.176511   926.220000   872.060000   19489.690
103.845718   27.858978   595.460000   876.440000   19058.790
120.579705   -8.904519   1183.270000   598.920000   17182.880
60.343570   26.480772   626.120000   1661.280000   15825.390
56.255203   12.958895   856.140000   1702.520000   15486.200
82.082595   -35.893634   1672.670000   1258.620000   13318.810
83.357822   -27.458642   1497.400000   1224.700000   13145.990
91.799550   -8.308534   1176.090000   1086.190000   11799.930
81.950809   17.525036   780.270000   1242.530000   11662.160
81.594075   14.542514   828.680000   1246.060000   10727.930
122.276559   14.866960   819.910000   552.840000   10271.900
114.924539   11.529905   873.560000   706.970000   10010.520
54.494548   -2.157842   1085.800000   1725.830000   9107.770
109.466755   -31.661181   1579.390000   754.630000   8515.140
94.639609   -10.938950   1216.490000   1042.280000   8262.020
127.784013   -26.742182   1481.200000   364.840000   6598.440
80.503469   37.209525   399.870000   1297.190000   6505.450
81.761423   30.377742   548.250000   1260.320000   6137.870
83.522044   -21.919473   1396.710000   1217.560000   5781.180
92.196379   -31.332059   1573.490000   1073.130000   5481.590
72.519384   -9.725095   1199.060000   1387.530000   5182.440
120.830577   -19.485799   1352.760000   568.030000   5055.990
97.245147   34.166805   467.050000   984.600000   4950.230
82.183663   25.665103   638.870000   1246.590000   4761.410
96.247737   5.532969   967.150000   1019.900000   4673.940
93.586558   4.860826   977.500000   1060.310000   4649.480
100.134852   22.021468   702.520000   949.880000   4413.680
108.434827   37.737596   383.770000   754.580000   4400.610
98.704176   -15.183317   1283.340000   976.690000   4305.200
132.706488   21.534407   707.200000   261.110000   4170.570
112.897888   -6.092299   1140.930000   748.400000   4160.120
64.375610   22.299083   701.050000   1560.170000   4044.720
92.492372   -38.358340   1730.330000   1063.320000   3856.170
109.570489   9.494625   905.640000   804.810000   3693.430
119.131399   -0.431905   1055.140000   634.640000   3277.590
108.748832   21.922699   703.420000   801.020000   3232.590
98.497579   41.504867   289.690000   945.970000   3125.110
89.849067   -6.658550   1151.050000   1115.850000   3088.730
101.585243   -18.597964   1339.110000   926.870000   2830.160
120.233083   -25.505732   1458.760000   556.690000   2775.350
81.234777   12.474457   861.480000   1250.420000   2670.740
79.711535   40.142608   327.890000   1321.030000   2634.420
112.736937   26.432713   621.540000   713.500000   2612.620
132.148793   -14.811115   1274.860000   306.950000   2377.760
115.330374   -15.073333   1280.510000   691.440000   2278.070
125.601736   -1.012114   1063.250000   497.790000   2195.880
74.523422   -28.642717   1520.650000   1382.650000   2124.740
97.758500   -39.799622   1765.960000   958.470000   2077.070
110.994008   -35.434806   1660.860000   706.310000   2052.310
103.488459   -3.429698   1101.370000   907.290000   1952.150
58.814615   -1.521179   1075.860000   1633.060000   1878.930
91.420365   -26.223093   1473.720000   1088.400000   1877.760
80.397200   -41.821821   1819.620000   1305.460000   1746.380
97.096296   -33.870994   1626.900000   982.640000   1676.950
95.770187   28.895837   576.200000   1016.970000   1646.400
82.200328   22.172639   701.500000   1242.550000   1591.710
105.118660   -23.684768   1426.670000   858.780000   1576.400
64.024245   9.358556   911.320000   1538.140000   1466.190
119.566766   13.538036   841.450000   613.020000   1399.400
125.721945   -11.252862   1219.190000   482.300000   1361.220
124.875912   -32.152320   1588.650000   403.050000   1343.440
65.551793   31.761027   521.920000   1574.920000   1331.830
94.869046   15.597624   810.650000   1039.110000   1277.200
134.545260   4.310297   982.110000   264.380000   1253.580
121.757996   30.688235   537.370000   496.910000   1183.420
93.164117   37.403795   393.710000   1057.160000   1105.270
93.267593   43.144541   245.420000   1050.380000   1055.910
114.142813   -0.062390   1050.010000   728.620000   1019.630
116.632586   41.129263   296.950000   544.570000   943.570
106.065916   32.104992   510.170000   824.170000   887.260
83.065537   -15.287229   1285.920000   1221.220000   860.610
100.467139   -2.665438   1090.080000   954.930000   797.370
111.728097   -37.608780   1711.330000   678.470000   772.050
116.188005   -20.891801   1377.040000   659.840000   708.970
127.000086   17.578712   775.110000   434.930000   706.880
105.492708   18.754618   757.840000   863.720000   703.030
91.601439   4.446616   983.890000   1090.230000   655.210
134.462214   8.035666   925.430000   261.100000   646.940
96.474305   -12.710821   1244.110000   1013.220000   550.970
119.571877   -29.294597   1530.970000   552.130000   492.940
# File created at Tue Jul 30 17:24:33 2019 with readwriteASCII.py
# From: Ge0001.dat
# Calibration parameters
# dd     :   69.1933822016
# xcen     :   1050.79567807
# ycen     :   1116.32830584
# xbet     :   0.154162322948
# xgam     :   -0.254472212868
# xpixelsize     :   0.08057
# ypixelsize     :   0.08057